" File: Users\mwalki\Desktop\Lab 5\Spectrometer\
" SCOPE->  Wave:735.15nm  Pix:1050  Val:719.482  Time:75ms  Avg:1  Sm:1  Sg:0  Tc:off  Z  SNAP  Xt:3  Ch:1  Xtrig
 340.00  1.2169E+002
 340.50  7.3176E+001
 341.00  7.9667E+001
 341.50  1.4511E+002
 342.00  1.3904E+002
 342.50  7.0126E+001
 343.00  1.1218E+002
 343.50  1.0503E+002
 344.00  9.3492E+001
 344.50  1.1597E+002
 345.00  1.0784E+002
 345.50  4.8425E+001
 346.00  2.0240E+001
 346.50  1.2113E+002
 347.00  1.2777E+002
 347.50  1.0741E+002
 348.00  1.1255E+002
 348.50  1.3612E+002
 349.00  1.4787E+002
 349.50  1.3420E+002
 350.00  1.2323E+002
 350.50  1.1238E+002
 351.00  9.8055E+001
 351.50  9.0077E+001
 352.00  7.5538E+001
 352.50  8.5681E+001
 353.00  1.0086E+002
 353.50  9.3323E+001
 354.00  9.9077E+001
 354.50  1.0226E+002
 355.00  1.2588E+002
 355.50  1.4392E+002
 356.00  1.5051E+002
 356.50  1.4430E+002
 357.00  1.3949E+002
 357.50  1.4717E+002
 358.00  1.3434E+002
 358.50  1.2549E+002
 359.00  1.0953E+002
 359.50  9.9688E+001
 360.00  1.0787E+002
 360.50  1.2156E+002
 361.00  1.3175E+002
 361.50  1.3733E+002
 362.00  1.4464E+002
 362.50  1.3857E+002
 363.00  1.2841E+002
 363.50  1.1923E+002
 364.00  1.1702E+002
 364.50  1.3230E+002
 365.00  1.4056E+002
 365.50  1.3939E+002
 366.00  1.2565E+002
 366.50  1.0490E+002
 367.00  8.6843E+001
 367.50  8.7141E+001
 368.00  9.6707E+001
 368.50  1.3111E+002
 369.00  1.6658E+002
 369.50  1.8233E+002
 370.00  1.7382E+002
 370.50  1.3589E+002
 371.00  1.0650E+002
 371.50  8.0936E+001
 372.00  7.2665E+001
 372.50  7.7848E+001
 373.00  8.4655E+001
 373.50  9.3506E+001
 374.00  9.5355E+001
 374.50  9.1999E+001
 375.00  9.2772E+001
 375.50  1.0691E+002
 376.00  1.2052E+002
 376.50  1.3599E+002
 377.00  1.3881E+002
 377.50  1.4893E+002
 378.00  1.4490E+002
 378.50  1.4689E+002
 379.00  1.5494E+002
 379.50  1.5940E+002
 380.00  1.7642E+002
 380.50  1.8668E+002
 381.00  1.8843E+002
 381.50  1.8147E+002
 382.00  1.7307E+002
 382.50  1.5154E+002
 383.00  1.4716E+002
 383.50  1.3949E+002
 384.00  1.3730E+002
 384.50  1.3323E+002
 385.00  1.1951E+002
 385.50  1.2220E+002
 386.00  1.2117E+002
 386.50  1.0482E+002
 387.00  8.2281E+001
 387.50  7.2334E+001
 388.00  8.1370E+001
 388.50  1.0735E+002
 389.00  1.1609E+002
 389.50  1.0906E+002
 390.00  1.1195E+002
 390.50  1.2428E+002
 391.00  1.3024E+002
 391.50  1.3467E+002
 392.00  1.1871E+002
 392.50  1.2291E+002
 393.00  1.2101E+002
 393.50  1.1163E+002
 394.00  8.9317E+001
 394.50  7.4307E+001
 395.00  8.6388E+001
 395.50  1.1719E+002
 396.00  1.4813E+002
 396.50  1.5998E+002
 397.00  1.5536E+002
 397.50  1.6049E+002
 398.00  1.4584E+002
 398.50  1.2796E+002
 399.00  1.0182E+002
 399.50  9.4028E+001
 400.00  1.0998E+002
 400.50  1.4097E+002
 401.00  1.6233E+002
 401.50  1.6109E+002
 402.00  1.4677E+002
 402.50  1.4225E+002
 403.00  1.2246E+002
 403.50  1.1761E+002
 404.00  1.1560E+002
 404.50  1.0929E+002
 405.00  1.1339E+002
 405.50  1.1857E+002
 406.00  1.3155E+002
 406.50  1.4168E+002
 407.00  1.5638E+002
 407.50  1.7145E+002
 408.00  1.7939E+002
 408.50  1.8333E+002
 409.00  1.7745E+002
 409.50  1.5810E+002
 410.00  1.5077E+002
 410.50  1.4957E+002
 411.00  1.4802E+002
 411.50  1.3563E+002
 412.00  1.3398E+002
 412.50  1.3630E+002
 413.00  1.4424E+002
 413.50  1.6042E+002
 414.00  1.5305E+002
 414.50  1.5349E+002
 415.00  1.6418E+002
 415.50  1.7661E+002
 416.00  2.0138E+002
 416.50  2.1770E+002
 417.00  2.2881E+002
 417.50  2.3957E+002
 418.00  2.4759E+002
 418.50  2.5361E+002
 419.00  2.6523E+002
 419.50  2.6458E+002
 420.00  2.7297E+002
 420.50  2.7601E+002
 421.00  2.7034E+002
 421.50  2.7040E+002
 422.00  2.6053E+002
 422.50  2.5125E+002
 423.00  2.5176E+002
 423.50  2.7007E+002
 424.00  3.0180E+002
 424.50  3.4315E+002
 425.00  3.7671E+002
 425.50  4.0396E+002
 426.00  4.3455E+002
 426.50  4.6408E+002
 427.00  5.1608E+002
 427.50  5.6647E+002
 428.00  6.1320E+002
 428.50  6.5349E+002
 429.00  6.6223E+002
 429.50  6.8371E+002
 430.00  7.3250E+002
 430.50  7.9276E+002
 431.00  8.5297E+002
 431.50  8.9894E+002
 432.00  9.4059E+002
 432.50  9.8818E+002
 433.00  1.0454E+003
 433.50  1.1118E+003
 434.00  1.1836E+003
 434.50  1.2782E+003
 435.00  1.3658E+003
 435.50  1.4068E+003
 436.00  1.4240E+003
 436.50  1.4498E+003
 437.00  1.5004E+003
 437.50  1.6002E+003
 438.00  1.6990E+003
 438.50  1.7824E+003
 439.00  1.8595E+003
 439.50  1.9437E+003
 440.00  2.0453E+003
 440.50  2.1796E+003
 441.00  2.3361E+003
 441.50  2.5042E+003
 442.00  2.6901E+003
 442.50  2.8750E+003
 443.00  3.0672E+003
 443.50  3.2447E+003
 444.00  3.4022E+003
 444.50  3.5660E+003
 445.00  3.7251E+003
 445.50  3.9003E+003
 446.00  4.0670E+003
 446.50  4.2253E+003
 447.00  4.3885E+003
 447.50  4.5498E+003
 448.00  4.6985E+003
 448.50  4.8313E+003
 449.00  4.9317E+003
 449.50  5.0250E+003
 450.00  5.1174E+003
 450.50  5.1771E+003
 451.00  5.1806E+003
 451.50  5.1278E+003
 452.00  5.0184E+003
 452.50  4.9142E+003
 453.00  4.7998E+003
 453.50  4.6601E+003
 454.00  4.5010E+003
 454.50  4.3219E+003
 455.00  4.1583E+003
 455.50  3.9820E+003
 456.00  3.7968E+003
 456.50  3.5897E+003
 457.00  3.4017E+003
 457.50  3.2402E+003
 458.00  3.1078E+003
 458.50  2.9764E+003
 459.00  2.8505E+003
 459.50  2.7250E+003
 460.00  2.5962E+003
 460.50  2.5014E+003
 461.00  2.4241E+003
 461.50  2.3711E+003
 462.00  2.3344E+003
 462.50  2.2927E+003
 463.00  2.2383E+003
 463.50  2.1863E+003
 464.00  2.1483E+003
 464.50  2.1161E+003
 465.00  2.1012E+003
 465.50  2.0753E+003
 466.00  2.0431E+003
 466.50  1.9953E+003
 467.00  1.9432E+003
 467.50  1.8995E+003
 468.00  1.8605E+003
 468.50  1.8102E+003
 469.00  1.7632E+003
 469.50  1.7293E+003
 470.00  1.6927E+003
 470.50  1.6634E+003
 471.00  1.6121E+003
 471.50  1.5443E+003
 472.00  1.4966E+003
 472.50  1.4734E+003
 473.00  1.4715E+003
 473.50  1.4710E+003
 474.00  1.4584E+003
 474.50  1.4431E+003
 475.00  1.4142E+003
 475.50  1.3958E+003
 476.00  1.3761E+003
 476.50  1.3620E+003
 477.00  1.3549E+003
 477.50  1.3674E+003
 478.00  1.3910E+003
 478.50  1.3956E+003
 479.00  1.3905E+003
 479.50  1.3787E+003
 480.00  1.3728E+003
 480.50  1.3949E+003
 481.00  1.4221E+003
 481.50  1.4445E+003
 482.00  1.4737E+003
 482.50  1.5081E+003
 483.00  1.5555E+003
 483.50  1.5960E+003
 484.00  1.6400E+003
 484.50  1.6791E+003
 485.00  1.6948E+003
 485.50  1.7142E+003
 486.00  1.7223E+003
 486.50  1.7529E+003
 487.00  1.8037E+003
 487.50  1.8459E+003
 488.00  1.8704E+003
 488.50  1.8834E+003
 489.00  1.9115E+003
 489.50  1.9701E+003
 490.00  2.0423E+003
 490.50  2.1199E+003
 491.00  2.1804E+003
 491.50  2.2318E+003
 492.00  2.3064E+003
 492.50  2.3777E+003
 493.00  2.4551E+003
 493.50  2.5207E+003
 494.00  2.5788E+003
 494.50  2.6463E+003
 495.00  2.7430E+003
 495.50  2.8376E+003
 496.00  2.9413E+003
 496.50  3.0509E+003
 497.00  3.1391E+003
 497.50  3.2484E+003
 498.00  3.3668E+003
 498.50  3.4919E+003
 499.00  3.6492E+003
 499.50  3.8234E+003
 500.00  3.9797E+003
 500.50  4.1378E+003
 501.00  4.2831E+003
 501.50  4.4201E+003
 502.00  4.5689E+003
 502.50  4.7474E+003
 503.00  4.9442E+003
 503.50  5.1291E+003
 504.00  5.3217E+003
 504.50  5.4819E+003
 505.00  5.6339E+003
 505.50  5.7958E+003
 506.00  5.9571E+003
 506.50  6.1358E+003
 507.00  6.3373E+003
 507.50  6.5471E+003
 508.00  6.7512E+003
 508.50  6.9529E+003
 509.00  7.1289E+003
 509.50  7.3123E+003
 510.00  7.5129E+003
 510.50  7.7508E+003
 511.00  8.0261E+003
 511.50  8.2815E+003
 512.00  8.4951E+003
 512.50  8.6665E+003
 513.00  8.8608E+003
 513.50  9.1088E+003
 514.00  9.4010E+003
 514.50  9.6880E+003
 515.00  9.9419E+003
 515.50  1.0137E+004
 516.00  1.0315E+004
 516.50  1.0477E+004
 517.00  1.0695E+004
 517.50  1.0959E+004
 518.00  1.1237E+004
 518.50  1.1526E+004
 519.00  1.1801E+004
 519.50  1.2069E+004
 520.00  1.2356E+004
 520.50  1.2602E+004
 521.00  1.2825E+004
 521.50  1.3037E+004
 522.00  1.3262E+004
 522.50  1.3507E+004
 523.00  1.3748E+004
 523.50  1.3999E+004
 524.00  1.4261E+004
 524.50  1.4520E+004
 525.00  1.4767E+004
 525.50  1.5003E+004
 526.00  1.5252E+004
 526.50  1.5530E+004
 527.00  1.5826E+004
 527.50  1.6136E+004
 528.00  1.6416E+004
 528.50  1.6679E+004
 529.00  1.6914E+004
 529.50  1.7097E+004
 530.00  1.7291E+004
 530.50  1.7513E+004
 531.00  1.7745E+004
 531.50  1.8019E+004
 532.00  1.8302E+004
 532.50  1.8600E+004
 533.00  1.8909E+004
 533.50  1.9178E+004
 534.00  1.9412E+004
 534.50  1.9655E+004
 535.00  1.9941E+004
 535.50  2.0281E+004
 536.00  2.0593E+004
 536.50  2.0877E+004
 537.00  2.1126E+004
 537.50  2.1366E+004
 538.00  2.1647E+004
 538.50  2.1925E+004
 539.00  2.2193E+004
 539.50  2.2457E+004
 540.00  2.2723E+004
 540.50  2.3014E+004
 541.00  2.3327E+004
 541.50  2.3626E+004
 542.00  2.3873E+004
 542.50  2.4113E+004
 543.00  2.4345E+004
 543.50  2.4599E+004
 544.00  2.4914E+004
 544.50  2.5240E+004
 545.00  2.5563E+004
 545.50  2.5936E+004
 546.00  2.6273E+004
 546.50  2.6602E+004
 547.00  2.6963E+004
 547.50  2.7310E+004
 548.00  2.7659E+004
 548.50  2.8078E+004
 549.00  2.8515E+004
 549.50  2.8942E+004
 550.00  2.9415E+004
 550.50  2.9866E+004
 551.00  3.0291E+004
 551.50  3.0720E+004
 552.00  3.1155E+004
 552.50  3.1580E+004
 553.00  3.1997E+004
 553.50  3.2445E+004
 554.00  3.2869E+004
 554.50  3.3288E+004
 555.00  3.3726E+004
 555.50  3.4171E+004
 556.00  3.4620E+004
 556.50  3.5060E+004
 557.00  3.5487E+004
 557.50  3.5832E+004
 558.00  3.6184E+004
 558.50  3.6516E+004
 559.00  3.6852E+004
 559.50  3.7181E+004
 560.00  3.7462E+004
 560.50  3.7775E+004
 561.00  3.8114E+004
 561.50  3.8428E+004
 562.00  3.8786E+004
 562.50  3.9103E+004
 563.00  3.9370E+004
 563.50  3.9705E+004
 564.00  4.0028E+004
 564.50  4.0333E+004
 565.00  4.0624E+004
 565.50  4.0890E+004
 566.00  4.1160E+004
 566.50  4.1458E+004
 567.00  4.1711E+004
 567.50  4.1948E+004
 568.00  4.2233E+004
 568.50  4.2576E+004
 569.00  4.2971E+004
 569.50  4.3291E+004
 570.00  4.3477E+004
 570.50  4.3625E+004
 571.00  4.3766E+004
 571.50  4.3969E+004
 572.00  4.4133E+004
 572.50  4.4283E+004
 573.00  4.4449E+004
 573.50  4.4603E+004
 574.00  4.4816E+004
 574.50  4.4981E+004
 575.00  4.5140E+004
 575.50  4.5319E+004
 576.00  4.5496E+004
 576.50  4.5649E+004
 577.00  4.5761E+004
 577.50  4.5828E+004
 578.00  4.5857E+004
 578.50  4.5932E+004
 579.00  4.6002E+004
 579.50  4.6050E+004
 580.00  4.6084E+004
 580.50  4.6084E+004
 581.00  4.6126E+004
 581.50  4.6202E+004
 582.00  4.6299E+004
 582.50  4.6364E+004
 583.00  4.6398E+004
 583.50  4.6346E+004
 584.00  4.6303E+004
 584.50  4.6290E+004
 585.00  4.6282E+004
 585.50  4.6311E+004
 586.00  4.6280E+004
 586.50  4.6176E+004
 587.00  4.6063E+004
 587.50  4.5960E+004
 588.00  4.5851E+004
 588.50  4.5743E+004
 589.00  4.5639E+004
 589.50  4.5590E+004
 590.00  4.5598E+004
 590.50  4.5616E+004
 591.00  4.5561E+004
 591.50  4.5416E+004
 592.00  4.5229E+004
 592.50  4.5016E+004
 593.00  4.4817E+004
 593.50  4.4727E+004
 594.00  4.4632E+004
 594.50  4.4500E+004
 595.00  4.4348E+004
 595.50  4.4100E+004
 596.00  4.3895E+004
 596.50  4.3797E+004
 597.00  4.3696E+004
 597.50  4.3582E+004
 598.00  4.3405E+004
 598.50  4.3130E+004
 599.00  4.2893E+004
 599.50  4.2672E+004
 600.00  4.2452E+004
 600.50  4.2279E+004
 601.00  4.2068E+004
 601.50  4.1857E+004
 602.00  4.1682E+004
 602.50  4.1485E+004
 603.00  4.1247E+004
 603.50  4.0931E+004
 604.00  4.0579E+004
 604.50  4.0210E+004
 605.00  3.9868E+004
 605.50  3.9583E+004
 606.00  3.9345E+004
 606.50  3.9119E+004
 607.00  3.8932E+004
 607.50  3.8750E+004
 608.00  3.8480E+004
 608.50  3.8185E+004
 609.00  3.7853E+004
 609.50  3.7505E+004
 610.00  3.7206E+004
 610.50  3.6942E+004
 611.00  3.6696E+004
 611.50  3.6453E+004
 612.00  3.6160E+004
 612.50  3.5838E+004
 613.00  3.5499E+004
 613.50  3.5144E+004
 614.00  3.4781E+004
 614.50  3.4380E+004
 615.00  3.3994E+004
 615.50  3.3618E+004
 616.00  3.3291E+004
 616.50  3.3034E+004
 617.00  3.2725E+004
 617.50  3.2412E+004
 618.00  3.2100E+004
 618.50  3.1785E+004
 619.00  3.1524E+004
 619.50  3.1271E+004
 620.00  3.0969E+004
 620.50  3.0635E+004
 621.00  3.0260E+004
 621.50  2.9878E+004
 622.00  2.9511E+004
 622.50  2.9173E+004
 623.00  2.8888E+004
 623.50  2.8618E+004
 624.00  2.8336E+004
 624.50  2.8035E+004
 625.00  2.7723E+004
 625.50  2.7366E+004
 626.00  2.7024E+004
 626.50  2.6713E+004
 627.00  2.6400E+004
 627.50  2.6121E+004
 628.00  2.5860E+004
 628.50  2.5592E+004
 629.00  2.5293E+004
 629.50  2.5007E+004
 630.00  2.4721E+004
 630.50  2.4416E+004
 631.00  2.4139E+004
 631.50  2.3876E+004
 632.00  2.3601E+004
 632.50  2.3320E+004
 633.00  2.3042E+004
 633.50  2.2776E+004
 634.00  2.2524E+004
 634.50  2.2270E+004
 635.00  2.1997E+004
 635.50  2.1711E+004
 636.00  2.1452E+004
 636.50  2.1163E+004
 637.00  2.0839E+004
 637.50  2.0535E+004
 638.00  2.0231E+004
 638.50  2.0004E+004
 639.00  1.9833E+004
 639.50  1.9636E+004
 640.00  1.9423E+004
 640.50  1.9182E+004
 641.00  1.8898E+004
 641.50  1.8559E+004
 642.00  1.8246E+004
 642.50  1.7965E+004
 643.00  1.7714E+004
 643.50  1.7503E+004
 644.00  1.7290E+004
 644.50  1.7036E+004
 645.00  1.6774E+004
 645.50  1.6520E+004
 646.00  1.6245E+004
 646.50  1.5980E+004
 647.00  1.5712E+004
 647.50  1.5453E+004
 648.00  1.5237E+004
 648.50  1.5035E+004
 649.00  1.4835E+004
 649.50  1.4601E+004
 650.00  1.4349E+004
 650.50  1.4094E+004
 651.00  1.3867E+004
 651.50  1.3694E+004
 652.00  1.3498E+004
 652.50  1.3309E+004
 653.00  1.3130E+004
 653.50  1.2928E+004
 654.00  1.2732E+004
 654.50  1.2506E+004
 655.00  1.2244E+004
 655.50  1.1979E+004
 656.00  1.1722E+004
 656.50  1.1494E+004
 657.00  1.1285E+004
 657.50  1.1093E+004
 658.00  1.0906E+004
 658.50  1.0743E+004
 659.00  1.0616E+004
 659.50  1.0492E+004
 660.00  1.0360E+004
 660.50  1.0221E+004
 661.00  1.0052E+004
 661.50  9.8598E+003
 662.00  9.6808E+003
 662.50  9.4962E+003
 663.00  9.3081E+003
 663.50  9.1498E+003
 664.00  8.9895E+003
 664.50  8.8268E+003
 665.00  8.6957E+003
 665.50  8.5767E+003
 666.00  8.4577E+003
 666.50  8.3315E+003
 667.00  8.1874E+003
 667.50  8.0150E+003
 668.00  7.8357E+003
 668.50  7.6877E+003
 669.00  7.5523E+003
 669.50  7.4378E+003
 670.00  7.3160E+003
 670.50  7.1807E+003
 671.00  7.0597E+003
 671.50  6.9508E+003
 672.00  6.8895E+003
 672.50  6.8145E+003
 673.00  6.7218E+003
 673.50  6.6043E+003
 674.00  6.4409E+003
 674.50  6.2947E+003
 675.00  6.1384E+003
 675.50  5.9978E+003
 676.00  5.8954E+003
 676.50  5.7874E+003
 677.00  5.6794E+003
 677.50  5.5696E+003
 678.00  5.4430E+003
 678.50  5.3226E+003
 679.00  5.2056E+003
 679.50  5.0828E+003
 680.00  4.9758E+003
 680.50  4.8572E+003
 681.00  4.7456E+003
 681.50  4.6441E+003
 682.00  4.5259E+003
 682.50  4.4275E+003
 683.00  4.3457E+003
 683.50  4.2583E+003
 684.00  4.1749E+003
 684.50  4.0867E+003
 685.00  4.0091E+003
 685.50  3.9269E+003
 686.00  3.8642E+003
 686.50  3.8417E+003
 687.00  3.8028E+003
 687.50  3.7729E+003
 688.00  3.7470E+003
 688.50  3.6939E+003
 689.00  3.6499E+003
 689.50  3.6116E+003
 690.00  3.5636E+003
 690.50  3.5115E+003
 691.00  3.4493E+003
 691.50  3.3990E+003
 692.00  3.3442E+003
 692.50  3.3002E+003
 693.00  3.2604E+003
 693.50  3.2101E+003
 694.00  3.1647E+003
 694.50  3.1193E+003
 695.00  3.0890E+003
 695.50  3.0492E+003
 696.00  2.9821E+003
 696.50  2.9036E+003
 697.00  2.8130E+003
 697.50  2.7373E+003
 698.00  2.6917E+003
 698.50  2.6538E+003
 699.00  2.6159E+003
 699.50  2.5691E+003
 700.00  2.5150E+003
 700.50  2.4714E+003
 701.00  2.4226E+003
 701.50  2.3532E+003
 702.00  2.2854E+003
 702.50  2.2208E+003
 703.00  2.1676E+003
 703.50  2.1295E+003
 704.00  2.1104E+003
 704.50  2.0976E+003
 705.00  2.0680E+003
 705.50  2.0417E+003
 706.00  2.0030E+003
 706.50  1.9379E+003
 707.00  1.8861E+003
 707.50  1.8425E+003
 708.00  1.8094E+003
 708.50  1.7791E+003
 709.00  1.7386E+003
 709.50  1.7130E+003
 710.00  1.6876E+003
 710.50  1.6609E+003
 711.00  1.6396E+003
 711.50  1.6014E+003
 712.00  1.5531E+003
 712.50  1.5092E+003
 713.00  1.4730E+003
 713.50  1.4367E+003
 714.00  1.4193E+003
 714.50  1.4170E+003
 715.00  1.4117E+003
 715.50  1.3987E+003
 716.00  1.3762E+003
 716.50  1.3513E+003
 717.00  1.3240E+003
 717.50  1.3047E+003
 718.00  1.2838E+003
 718.50  1.2616E+003
 719.00  1.2443E+003
 719.50  1.2218E+003
 720.00  1.2048E+003
 720.50  1.1831E+003
 721.00  1.1461E+003
 721.50  1.1212E+003
 722.00  1.1059E+003
 722.50  1.0767E+003
 723.00  1.0580E+003
 723.50  1.0396E+003
 724.00  1.0167E+003
 724.50  1.0032E+003
 725.00  9.8693E+002
 725.50  9.6434E+002
 726.00  9.4888E+002
 726.50  9.4666E+002
 727.00  9.3832E+002
 727.50  9.1736E+002
 728.00  8.8613E+002
 728.50  8.4671E+002
 729.00  8.1940E+002
 729.50  8.1441E+002
 730.00  8.1779E+002
 730.50  8.1244E+002
 731.00  7.9484E+002
 731.50  7.8430E+002
 732.00  7.6767E+002
 732.50  7.5550E+002
 733.00  7.5724E+002
 733.50  7.5452E+002
 734.00  7.4694E+002
 734.50  7.3388E+002
 735.00  7.2158E+002
 735.50  7.1346E+002
 736.00  7.0933E+002
 736.50  7.2454E+002
 737.00  7.2609E+002
 737.50  7.1214E+002
 738.00  6.8889E+002
 738.50  6.5197E+002
 739.00  6.1362E+002
 739.50  5.9247E+002
 740.00  5.8874E+002
 740.50  5.8327E+002
 741.00  5.8368E+002
 741.50  5.8208E+002
 742.00  5.7185E+002
 742.50  5.6834E+002
 743.00  5.7141E+002
 743.50  5.6565E+002
 744.00  5.6837E+002
 744.50  5.6043E+002
 745.00  5.4328E+002
 745.50  5.4273E+002
 746.00  5.2169E+002
 746.50  4.9896E+002
 747.00  4.9016E+002
 747.50  4.7648E+002
 748.00  4.7084E+002
 748.50  4.6220E+002
 749.00  4.5191E+002
 749.50  4.5118E+002
 750.00  4.5328E+002
 750.50  4.6214E+002
 751.00  4.7836E+002
 751.50  4.9203E+002
 752.00  5.0019E+002
 752.50  4.9995E+002
 753.00  4.8991E+002
 753.50  4.6873E+002
 754.00  4.4755E+002
 754.50  4.3979E+002
 755.00  4.4377E+002
 755.50  4.4277E+002
 756.00  4.2363E+002
 756.50  3.9721E+002
 757.00  3.7164E+002
 757.50  3.5555E+002
 758.00  3.5719E+002
 758.50  3.5717E+002
 759.00  3.5337E+002
 759.50  3.4830E+002
 760.00  3.4163E+002
 760.50  3.4784E+002
 761.00  3.5927E+002
 761.50  3.6228E+002
 762.00  3.6013E+002
 762.50  3.5352E+002
 763.00  3.3506E+002
 763.50  3.2020E+002
 764.00  3.0130E+002
 764.50  2.8310E+002
 765.00  2.7678E+002
 765.50  2.7617E+002
 766.00  2.9665E+002
 766.50  3.2429E+002
 767.00  3.3466E+002
 767.50  3.3495E+002
 768.00  3.2200E+002
 768.50  2.9126E+002
 769.00  2.6784E+002
 769.50  2.5747E+002
 770.00  2.5499E+002
 770.50  2.7351E+002
 771.00  2.9437E+002
 771.50  2.9739E+002
 772.00  2.9263E+002
 772.50  2.8271E+002
 773.00  2.6601E+002
 773.50  2.5180E+002
 774.00  2.4892E+002
 774.50  2.5039E+002
 775.00  2.5479E+002
 775.50  2.7835E+002
 776.00  2.8977E+002
 776.50  2.8108E+002
 777.00  2.6237E+002
 777.50  2.4086E+002
 778.00  2.1689E+002
 778.50  1.9550E+002
 779.00  2.0201E+002
 779.50  2.1491E+002
 780.00  2.3104E+002
 780.50  2.4978E+002
 781.00  2.4532E+002
 781.50  2.2197E+002
 782.00  2.0215E+002
 782.50  1.8590E+002
 783.00  1.7760E+002
 783.50  1.8666E+002
 784.00  2.0549E+002
 784.50  2.2403E+002
 785.00  2.3507E+002
 785.50  2.2996E+002
 786.00  2.1031E+002
 786.50  1.8096E+002
 787.00  1.6569E+002
 787.50  1.5996E+002
 788.00  1.5997E+002
 788.50  1.6452E+002
 789.00  1.7091E+002
 789.50  1.9303E+002
 790.00  2.2032E+002
 790.50  2.4088E+002
 791.00  2.5015E+002
 791.50  2.3588E+002
 792.00  2.0517E+002
 792.50  1.8759E+002
 793.00  1.8468E+002
 793.50  1.8018E+002
 794.00  1.6084E+002
 794.50  1.3274E+002
 795.00  1.0898E+002
 795.50  1.0126E+002
 796.00  1.2022E+002
 796.50  1.5139E+002
 797.00  1.7412E+002
 797.50  1.9277E+002
 798.00  2.0468E+002
 798.50  2.0302E+002
 799.00  2.0255E+002
 799.50  2.0028E+002
 800.00  1.9508E+002
 800.50  1.9150E+002
 801.00  1.9531E+002
 801.50  1.9670E+002
 802.00  1.8820E+002
 802.50  1.8218E+002
 803.00  1.6982E+002
 803.50  1.5020E+002
 804.00  1.5053E+002
 804.50  1.5619E+002
 805.00  1.5890E+002
 805.50  1.7130E+002
 806.00  1.7371E+002
 806.50  1.7410E+002
 807.00  1.8426E+002
 807.50  1.9375E+002
 808.00  1.9879E+002
 808.50  1.9411E+002
 809.00  1.8573E+002
 809.50  1.6868E+002
 810.00  1.4581E+002
 810.50  1.2656E+002
 811.00  1.1764E+002
 811.50  1.2633E+002
